# %ECSV 1.0
# ---
# datatype:
# - {name: g_mean_lam, unit: mm, datatype: float64, description: Wavelength}
# - {name: g_dispersion, unit: nm / pix, datatype: float64, description: Grism dispersion}
# delimiter: ','
# meta: !!omap
# - {comments: 'Roman/WFI grism dispersion at the field center. Analysis is ongoing to model the prism dispersion in the regime > 1600
#     nm. Users interested in wavelengths >1600 nm should contact Eric Switzer (eric.r.switzer@nasa.gov) and refer to Bray et al. (2024)
#     (https://ui.adsabs.harvard.edu/abs/2024JATIS..10a4003B/abstract). The design is described in Eegholm et al. (2025) (https://ui.adsabs.harvard.edu/abs/2025JATIS..11b5001E/abstract).'}
# schema: astropy-2.0
g_mean_lam,g_dispersion
998.65,1.08
999.95,1.08
1001.25,1.08
1002.55,1.08
1003.85,1.08
1005.16,1.08
1006.46,1.08
1007.76,1.08
1009.06,1.08
1010.36,1.08
1011.66,1.08
1012.96,1.08
1014.26,1.08
1015.57,1.08
1016.87,1.08
1018.17,1.08
1019.47,1.08
1020.77,1.08
1022.07,1.08
1023.37,1.08
1024.67,1.08
1025.98,1.08
1027.28,1.08
1028.58,1.08
1029.88,1.08
1031.18,1.08
1032.48,1.08
1033.78,1.08
1035.09,1.08
1036.39,1.08
1037.69,1.08
1038.99,1.08
1040.29,1.08
1041.59,1.08
1042.89,1.08
1044.19,1.08
1045.5,1.08
1046.8,1.08
1048.1,1.08
1049.4,1.08
1050.7,1.08
1052.0,1.08
1053.3,1.08
1054.6,1.08
1055.91,1.08
1057.21,1.08
1058.51,1.08
1059.81,1.08
1061.11,1.08
1062.41,1.08
1063.71,1.08
1065.02,1.08
1066.32,1.08
1067.62,1.08
1068.92,1.08
1070.22,1.08
1071.52,1.08
1072.82,1.08
1074.12,1.08
1075.43,1.08
1076.73,1.08
1078.03,1.08
1079.33,1.08
1080.63,1.08
1081.93,1.08
1083.23,1.08
1084.53,1.08
1085.84,1.08
1087.14,1.08
1088.44,1.08
1089.74,1.08
1091.04,1.08
1092.34,1.08
1093.64,1.08
1094.94,1.09
1096.25,1.09
1097.55,1.09
1098.85,1.09
1100.15,1.09
1101.45,1.09
1102.75,1.09
1104.05,1.09
1105.36,1.09
1106.66,1.09
1107.96,1.09
1109.26,1.09
1110.56,1.09
1111.86,1.09
1113.16,1.09
1114.46,1.09
1115.77,1.09
1117.07,1.09
1118.37,1.09
1119.67,1.09
1120.97,1.09
1122.27,1.09
1123.57,1.09
1124.87,1.09
1126.18,1.09
1127.48,1.09
1128.78,1.09
1130.08,1.09
1131.38,1.09
1132.68,1.09
1133.98,1.09
1135.29,1.09
1136.59,1.09
1137.89,1.09
1139.19,1.09
1140.49,1.09
1141.79,1.09
1143.09,1.09
1144.39,1.09
1145.7,1.09
1147.0,1.09
1148.3,1.09
1149.6,1.09
1150.9,1.09
1152.2,1.09
1153.5,1.09
1154.8,1.09
1156.11,1.09
1157.41,1.09
1158.71,1.09
1160.01,1.09
1161.31,1.09
1162.61,1.09
1163.91,1.09
1165.22,1.09
1166.52,1.09
1167.82,1.09
1169.12,1.09
1170.42,1.09
1171.72,1.09
1173.02,1.09
1174.32,1.09
1175.63,1.09
1176.93,1.09
1178.23,1.09
1179.53,1.09
1180.83,1.09
1182.13,1.09
1183.43,1.09
1184.73,1.09
1186.04,1.09
1187.34,1.09
1188.64,1.09
1189.94,1.09
1191.24,1.09
1192.54,1.09
1193.84,1.09
1195.15,1.09
1196.45,1.09
1197.75,1.09
1199.05,1.09
1200.35,1.09
1201.65,1.09
1202.95,1.09
1204.25,1.09
1205.56,1.09
1206.86,1.09
1208.16,1.09
1209.46,1.09
1210.76,1.09
1212.06,1.09
1213.36,1.09
1214.66,1.09
1215.97,1.09
1217.27,1.09
1218.57,1.09
1219.87,1.09
1221.17,1.09
1222.47,1.09
1223.77,1.09
1225.08,1.09
1226.38,1.09
1227.68,1.09
1228.98,1.09
1230.28,1.09
1231.58,1.09
1232.88,1.09
1234.18,1.09
1235.49,1.09
1236.79,1.09
1238.09,1.09
1239.39,1.09
1240.69,1.09
1241.99,1.09
1243.29,1.09
1244.59,1.09
1245.9,1.09
1247.2,1.09
1248.5,1.09
1249.8,1.09
1251.1,1.09
1252.4,1.09
1253.7,1.09
1255.01,1.09
1256.31,1.09
1257.61,1.09
1258.91,1.09
1260.21,1.09
1261.51,1.09
1262.81,1.09
1264.11,1.09
1265.42,1.09
1266.72,1.09
1268.02,1.09
1269.32,1.09
1270.62,1.09
1271.92,1.09
1273.22,1.09
1274.52,1.09
1275.83,1.09
1277.13,1.09
1278.43,1.09
1279.73,1.09
1281.03,1.09
1282.33,1.09
1283.63,1.09
1284.93,1.09
1286.24,1.09
1287.54,1.09
1288.84,1.09
1290.14,1.09
1291.44,1.09
1292.74,1.09
1294.04,1.09
1295.35,1.09
1296.65,1.09
1297.95,1.09
1299.25,1.09
1300.55,1.09
1301.85,1.09
1303.15,1.09
1304.45,1.09
1305.76,1.09
1307.06,1.09
1308.36,1.09
1309.66,1.09
1310.96,1.09
1312.26,1.09
1313.56,1.09
1314.86,1.09
1316.17,1.09
1317.47,1.09
1318.77,1.09
1320.07,1.09
1321.37,1.09
1322.67,1.09
1323.97,1.09
1325.28,1.09
1326.58,1.09
1327.88,1.09
1329.18,1.09
1330.48,1.09
1331.78,1.09
1333.08,1.09
1334.38,1.09
1335.69,1.09
1336.99,1.09
1338.29,1.09
1339.59,1.09
1340.89,1.09
1342.19,1.09
1343.49,1.09
1344.79,1.09
1346.1,1.09
1347.4,1.09
1348.7,1.09
1350.0,1.09
1351.3,1.09
1352.6,1.09
1353.9,1.09
1355.21,1.09
1356.51,1.09
1357.81,1.09
1359.11,1.09
1360.41,1.09
1361.71,1.09
1363.01,1.09
1364.31,1.09
1365.62,1.09
1366.92,1.09
1368.22,1.09
1369.52,1.09
1370.82,1.09
1372.12,1.09
1373.42,1.09
1374.72,1.09
1376.03,1.09
1377.33,1.09
1378.63,1.09
1379.93,1.09
1381.23,1.09
1382.53,1.09
1383.83,1.09
1385.14,1.09
1386.44,1.09
1387.74,1.09
1389.04,1.09
1390.34,1.09
1391.64,1.09
1392.94,1.09
1394.24,1.09
1395.55,1.09
1396.85,1.09
1398.15,1.09
1399.45,1.09
1400.75,1.09
1402.05,1.09
1403.35,1.09
1404.65,1.09
1405.96,1.09
1407.26,1.09
1408.56,1.09
1409.86,1.09
1411.16,1.09
1412.46,1.09
1413.76,1.09
1415.07,1.09
1416.37,1.09
1417.67,1.09
1418.97,1.09
1420.27,1.09
1421.57,1.09
1422.87,1.09
1424.17,1.09
1425.48,1.09
1426.78,1.09
1428.08,1.09
1429.38,1.09
1430.68,1.09
1431.98,1.09
1433.28,1.09
1434.58,1.09
1435.89,1.09
1437.19,1.09
1438.49,1.09
1439.79,1.09
1441.09,1.09
1442.39,1.09
1443.69,1.09
1444.99,1.09
1446.3,1.09
1447.6,1.09
1448.9,1.09
1450.2,1.09
1451.5,1.09
1452.8,1.09
1454.1,1.09
1455.41,1.09
1456.71,1.09
1458.01,1.09
1459.31,1.09
1460.61,1.09
1461.91,1.09
1463.21,1.09
1464.51,1.09
1465.82,1.09
1467.12,1.09
1468.42,1.09
1469.72,1.09
1471.02,1.09
1472.32,1.09
1473.62,1.09
1474.92,1.09
1476.23,1.09
1477.53,1.09
1478.83,1.09
1480.13,1.09
1481.43,1.09
1482.73,1.09
1484.03,1.09
1485.34,1.09
1486.64,1.09
1487.94,1.09
1489.24,1.09
1490.54,1.09
1491.84,1.09
1493.14,1.09
1494.44,1.09
1495.75,1.09
1497.05,1.09
1498.35,1.09
1499.65,1.09
1500.95,1.09
1502.25,1.09
1503.55,1.09
1504.85,1.09
1506.16,1.09
1507.46,1.09
1508.76,1.09
1510.06,1.09
1511.36,1.09
1512.66,1.09
1513.96,1.09
1515.27,1.09
1516.57,1.09
1517.87,1.09
1519.17,1.09
1520.47,1.09
1521.77,1.09
1523.07,1.09
1524.37,1.09
1525.68,1.09
1526.98,1.09
1528.28,1.09
1529.58,1.09
1530.88,1.09
1532.18,1.09
1533.48,1.09
1534.78,1.09
1536.09,1.09
1537.39,1.09
1538.69,1.09
1539.99,1.09
1541.29,1.09
1542.59,1.09
1543.89,1.09
1545.2,1.09
1546.5,1.09
1547.8,1.09
1549.1,1.09
1550.4,1.09
1551.7,1.09
1553.0,1.09
1554.3,1.09
1555.61,1.09
1556.91,1.09
1558.21,1.09
1559.51,1.09
1560.81,1.09
1562.11,1.09
1563.41,1.09
1564.71,1.09
1566.02,1.09
1567.32,1.09
1568.62,1.09
1569.92,1.09
1571.22,1.09
1572.52,1.09
1573.82,1.09
1575.13,1.09
1576.43,1.09
1577.73,1.09
1579.03,1.09
1580.33,1.09
1581.63,1.09
1582.93,1.09
1584.23,1.09
1585.54,1.09
1586.84,1.09
1588.14,1.09
1589.44,1.09
1590.74,1.09
1592.04,1.09
1593.34,1.09
1594.64,1.09
1595.95,1.09
1597.25,1.09
1598.55,1.09
1599.85,1.09
1601.15,1.09
1602.45,1.09
1603.75,1.09
1605.06,1.09
1606.36,1.09
1607.66,1.09
1608.96,1.09
1610.26,1.09
1611.56,1.09
1612.86,1.09
1614.16,1.09
1615.47,1.09
1616.77,1.09
1618.07,1.09
1619.37,1.09
1620.67,1.09
1621.97,1.09
1623.27,1.09
1624.57,1.09
1625.88,1.09
1627.18,1.09
1628.48,1.09
1629.78,1.09
1631.08,1.09
1632.38,1.09
1633.68,1.09
1634.98,1.09
1636.29,1.09
1637.59,1.09
1638.89,1.09
1640.19,1.09
1641.49,1.09
1642.79,1.09
1644.09,1.09
1645.4,1.09
1646.7,1.09
1648.0,1.09
1649.3,1.09
1650.6,1.09
1651.9,1.09
1653.2,1.09
1654.5,1.09
1655.81,1.09
1657.11,1.09
1658.41,1.09
1659.71,1.09
1661.01,1.09
1662.31,1.09
1663.61,1.09
1664.91,1.09
1666.22,1.09
1667.52,1.09
1668.82,1.09
1670.12,1.09
1671.42,1.09
1672.72,1.09
1674.02,1.09
1675.33,1.09
1676.63,1.09
1677.93,1.09
1679.23,1.09
1680.53,1.09
1681.83,1.09
1683.13,1.09
1684.43,1.09
1685.74,1.09
1687.04,1.09
1688.34,1.09
1689.64,1.09
1690.94,1.09
1692.24,1.09
1693.54,1.09
1694.84,1.09
1696.15,1.09
1697.45,1.09
1698.75,1.09
1700.05,1.09
1701.35,1.09
1702.65,1.09
1703.95,1.09
1705.26,1.09
1706.56,1.09
1707.86,1.09
1709.16,1.09
1710.46,1.09
1711.76,1.09
1713.06,1.09
1714.36,1.09
1715.67,1.09
1716.97,1.09
1718.27,1.09
1719.57,1.09
1720.87,1.09
1722.17,1.09
1723.47,1.09
1724.77,1.09
1726.08,1.09
1727.38,1.09
1728.68,1.09
1729.98,1.08
1731.28,1.08
1732.58,1.08
1733.88,1.08
1735.19,1.08
1736.49,1.08
1737.79,1.08
1739.09,1.08
1740.39,1.08
1741.69,1.08
1742.99,1.08
1744.29,1.08
1745.6,1.08
1746.9,1.08
1748.2,1.08
1749.5,1.08
1750.8,1.08
1752.1,1.08
1753.4,1.08
1754.7,1.08
1756.01,1.08
1757.31,1.08
1758.61,1.08
1759.91,1.08
1761.21,1.08
1762.51,1.08
1763.81,1.08
1765.12,1.08
1766.42,1.08
1767.72,1.08
1769.02,1.08
1770.32,1.08
1771.62,1.08
1772.92,1.08
1774.22,1.08
1775.53,1.08
1776.83,1.08
1778.13,1.08
1779.43,1.08
1780.73,1.08
1782.03,1.08
1783.33,1.08
1784.63,1.08
1785.94,1.08
1787.24,1.08
1788.54,1.08
1789.84,1.08
1791.14,1.08
1792.44,1.08
1793.74,1.08
1795.05,1.08
1796.35,1.08
1797.65,1.08
1798.95,1.08
1800.25,1.08
1801.55,1.08
1802.85,1.08
1804.15,1.08
1805.46,1.08
1806.76,1.08
1808.06,1.08
1809.36,1.08
1810.66,1.08
1811.96,1.08
1813.26,1.08
1814.56,1.08
1815.87,1.08
1817.17,1.08
1818.47,1.08
1819.77,1.08
1821.07,1.08
1822.37,1.08
1823.67,1.08
1824.97,1.08
1826.28,1.08
1827.58,1.08
1828.88,1.08
1830.18,1.08
1831.48,1.08
1832.78,1.08
1834.08,1.08
1835.39,1.08
1836.69,1.08
1837.99,1.08
1839.29,1.08
1840.59,1.08
1841.89,1.08
1843.19,1.08
1844.49,1.08
1845.8,1.08
1847.1,1.08
1848.4,1.08
1849.7,1.08
1851.0,1.08
1852.3,1.08
1853.6,1.08
1854.9,1.08
1856.21,1.08
1857.51,1.08
1858.81,1.08
1860.11,1.08
1861.41,1.08
1862.71,1.08
1864.01,1.08
1865.32,1.08
1866.62,1.08
1867.92,1.08
1869.22,1.08
1870.52,1.08
1871.82,1.08
1873.12,1.08
1874.42,1.08
1875.73,1.08
1877.03,1.08
1878.33,1.08
1879.63,1.08
1880.93,1.08
1882.23,1.08
1883.53,1.08
1884.83,1.08
1886.14,1.08
1887.44,1.08
1888.74,1.08
1890.04,1.08
1891.34,1.08
1892.64,1.08
1893.94,1.08
1895.25,1.08
1896.55,1.08
1897.85,1.08
1899.15,1.08
1900.45,1.08
1901.75,1.08
1903.05,1.08
1904.35,1.08
1905.66,1.08
1906.96,1.08
1908.26,1.08
1909.56,1.08
1910.86,1.08
1912.16,1.08
1913.46,1.08
1914.76,1.08
1916.07,1.08
1917.37,1.08
1918.67,1.08
1919.97,1.08
1921.27,1.08
1922.57,1.08
