# %ECSV 1.0
# ---
# datatype:
# - {name: p_mean_lam, unit: nm, datatype: float64, description: Wavelength}
# - {name: p_dispersion, unit: nm / pix, datatype: float64, description: Prism dispersion}
# delimiter: ','
# meta: !!omap
# - {comments: 'Roman/WFI prism dispersion at the field center. Field dependence of the dispersion is described in Bray et al. (2024)
#     (https://ui.adsabs.harvard.edu/abs/2024JATIS..10a4003B/abstract). Users interested in a complete model of the prism and grism should
#     contact Eric Switzer (eric.r.switzer@nasa.gov).'}
# schema: astropy-2.0
p_mean_lam,p_dispersion
760.51,2.17
761.81,2.18
763.11,2.19
764.41,2.2
765.72,2.21
767.02,2.22
768.32,2.23
769.62,2.24
770.92,2.26
772.22,2.27
773.52,2.28
774.82,2.29
776.13,2.3
777.43,2.31
778.73,2.32
780.03,2.33
781.33,2.34
782.63,2.35
783.93,2.36
785.24,2.38
786.54,2.39
787.84,2.4
789.14,2.41
790.44,2.42
791.74,2.43
793.04,2.44
794.34,2.45
795.65,2.47
796.95,2.48
798.25,2.49
799.55,2.5
800.85,2.51
802.15,2.52
803.45,2.53
804.75,2.55
806.06,2.56
807.36,2.57
808.66,2.58
809.96,2.59
811.26,2.61
812.56,2.62
813.86,2.63
815.17,2.64
816.47,2.65
817.77,2.66
819.07,2.68
820.37,2.69
821.67,2.7
822.97,2.71
824.27,2.72
825.58,2.74
826.88,2.75
828.18,2.76
829.48,2.77
830.78,2.79
832.08,2.8
833.38,2.81
834.68,2.82
835.99,2.83
837.29,2.85
838.59,2.86
839.89,2.87
841.19,2.88
842.49,2.9
843.79,2.91
845.1,2.92
846.4,2.93
847.7,2.95
849.0,2.96
850.3,2.97
851.6,2.98
852.9,3.0
854.2,3.01
855.51,3.02
856.81,3.04
858.11,3.05
859.41,3.06
860.71,3.07
862.01,3.09
863.31,3.1
864.61,3.11
865.92,3.13
867.22,3.14
868.52,3.15
869.82,3.16
871.12,3.18
872.42,3.19
873.72,3.2
875.03,3.22
876.33,3.23
877.63,3.24
878.93,3.26
880.23,3.27
881.53,3.28
882.83,3.3
884.13,3.31
885.44,3.32
886.74,3.34
888.04,3.35
889.34,3.36
890.64,3.38
891.94,3.39
893.24,3.4
894.54,3.42
895.85,3.43
897.15,3.44
898.45,3.46
899.75,3.47
901.05,3.48
902.35,3.5
903.65,3.51
904.95,3.52
906.26,3.54
907.56,3.55
908.86,3.56
910.16,3.58
911.46,3.59
912.76,3.61
914.06,3.62
915.37,3.63
916.67,3.65
917.97,3.66
919.27,3.67
920.57,3.69
921.87,3.7
923.17,3.72
924.47,3.73
925.78,3.74
927.08,3.76
928.38,3.77
929.68,3.78
930.98,3.8
932.28,3.81
933.58,3.83
934.88,3.84
936.19,3.85
937.49,3.87
938.79,3.88
940.09,3.9
941.39,3.91
942.69,3.92
943.99,3.94
945.3,3.95
946.6,3.97
947.9,3.98
949.2,3.99
950.5,4.01
951.8,4.02
953.1,4.04
954.4,4.05
955.71,4.06
957.01,4.08
958.31,4.09
959.61,4.11
960.91,4.12
962.21,4.13
963.51,4.15
964.81,4.16
966.12,4.18
967.42,4.19
968.72,4.2
970.02,4.22
971.32,4.23
972.62,4.25
973.92,4.26
975.23,4.27
976.53,4.29
977.83,4.3
979.13,4.32
980.43,4.33
981.73,4.34
983.03,4.36
984.33,4.37
985.64,4.39
986.94,4.4
988.24,4.41
989.54,4.43
990.84,4.44
992.14,4.46
993.44,4.47
994.74,4.49
996.05,4.5
997.35,4.51
998.65,4.53
999.95,4.54
1001.25,4.56
1002.55,4.57
1003.85,4.58
1005.16,4.6
1006.46,4.61
1007.76,4.63
1009.06,4.64
1010.36,4.65
1011.66,4.67
1012.96,4.68
1014.26,4.7
1015.57,4.71
1016.87,4.72
1018.17,4.74
1019.47,4.75
1020.77,4.77
1022.07,4.78
1023.37,4.8
1024.67,4.81
1025.98,4.82
1027.28,4.84
1028.58,4.85
1029.88,4.87
1031.18,4.88
1032.48,4.89
1033.78,4.91
1035.09,4.92
1036.39,4.94
1037.69,4.95
1038.99,4.96
1040.29,4.98
1041.59,4.99
1042.89,5.01
1044.19,5.02
1045.5,5.03
1046.8,5.05
1048.1,5.06
1049.4,5.08
1050.7,5.09
1052.0,5.1
1053.3,5.12
1054.6,5.13
1055.91,5.14
1057.21,5.16
1058.51,5.17
1059.81,5.19
1061.11,5.2
1062.41,5.21
1063.71,5.23
1065.02,5.24
1066.32,5.26
1067.62,5.27
1068.92,5.28
1070.22,5.3
1071.52,5.31
1072.82,5.32
1074.12,5.34
1075.43,5.35
1076.73,5.37
1078.03,5.38
1079.33,5.39
1080.63,5.41
1081.93,5.42
1083.23,5.43
1084.53,5.45
1085.84,5.46
1087.14,5.48
1088.44,5.49
1089.74,5.5
1091.04,5.52
1092.34,5.53
1093.64,5.54
1094.94,5.56
1096.25,5.57
1097.55,5.58
1098.85,5.6
1100.15,5.61
1101.45,5.63
1102.75,5.64
1104.05,5.65
1105.36,5.67
1106.66,5.68
1107.96,5.69
1109.26,5.71
1110.56,5.72
1111.86,5.73
1113.16,5.75
1114.46,5.76
1115.77,5.77
1117.07,5.79
1118.37,5.8
1119.67,5.81
1120.97,5.83
1122.27,5.84
1123.57,5.85
1124.87,5.87
1126.18,5.88
1127.48,5.89
1128.78,5.91
1130.08,5.92
1131.38,5.93
1132.68,5.95
1133.98,5.96
1135.29,5.97
1136.59,5.99
1137.89,6.0
1139.19,6.01
1140.49,6.03
1141.79,6.04
1143.09,6.05
1144.39,6.06
1145.7,6.08
1147.0,6.09
1148.3,6.1
1149.6,6.12
1150.9,6.13
1152.2,6.14
1153.5,6.16
1154.8,6.17
1156.11,6.18
1157.41,6.19
1158.71,6.21
1160.01,6.22
1161.31,6.23
1162.61,6.25
1163.91,6.26
1165.22,6.27
1166.52,6.28
1167.82,6.3
1169.12,6.31
1170.42,6.32
1171.72,6.34
1173.02,6.35
1174.32,6.36
1175.63,6.37
1176.93,6.39
1178.23,6.4
1179.53,6.41
1180.83,6.43
1182.13,6.44
1183.43,6.45
1184.73,6.46
1186.04,6.48
1187.34,6.49
1188.64,6.5
1189.94,6.51
1191.24,6.53
1192.54,6.54
1193.84,6.55
1195.15,6.56
1196.45,6.58
1197.75,6.59
1199.05,6.6
1200.35,6.61
1201.65,6.63
1202.95,6.64
1204.25,6.65
1205.56,6.66
1206.86,6.67
1208.16,6.69
1209.46,6.7
1210.76,6.71
1212.06,6.72
1213.36,6.74
1214.66,6.75
1215.97,6.76
1217.27,6.77
1218.57,6.78
1219.87,6.8
1221.17,6.81
1222.47,6.82
1223.77,6.83
1225.08,6.85
1226.38,6.86
1227.68,6.87
1228.98,6.88
1230.28,6.89
1231.58,6.91
1232.88,6.92
1234.18,6.93
1235.49,6.94
1236.79,6.95
1238.09,6.96
1239.39,6.98
1240.69,6.99
1241.99,7.0
1243.29,7.01
1244.59,7.02
1245.9,7.04
1247.2,7.05
1248.5,7.06
1249.8,7.07
1251.1,7.08
1252.4,7.09
1253.7,7.11
1255.01,7.12
1256.31,7.13
1257.61,7.14
1258.91,7.15
1260.21,7.16
1261.51,7.17
1262.81,7.19
1264.11,7.2
1265.42,7.21
1266.72,7.22
1268.02,7.23
1269.32,7.24
1270.62,7.25
1271.92,7.27
1273.22,7.28
1274.52,7.29
1275.83,7.3
1277.13,7.31
1278.43,7.32
1279.73,7.33
1281.03,7.34
1282.33,7.36
1283.63,7.37
1284.93,7.38
1286.24,7.39
1287.54,7.4
1288.84,7.41
1290.14,7.42
1291.44,7.43
1292.74,7.44
1294.04,7.45
1295.35,7.47
1296.65,7.48
1297.95,7.49
1299.25,7.5
1300.55,7.51
1301.85,7.52
1303.15,7.53
1304.45,7.54
1305.76,7.55
1307.06,7.56
1308.36,7.57
1309.66,7.58
1310.96,7.59
1312.26,7.6
1313.56,7.61
1314.86,7.62
1316.17,7.64
1317.47,7.65
1318.77,7.66
1320.07,7.67
1321.37,7.68
1322.67,7.69
1323.97,7.7
1325.28,7.71
1326.58,7.72
1327.88,7.73
1329.18,7.74
1330.48,7.75
1331.78,7.76
1333.08,7.77
1334.38,7.78
1335.69,7.79
1336.99,7.8
1338.29,7.81
1339.59,7.82
1340.89,7.83
1342.19,7.84
1343.49,7.85
1344.79,7.86
1346.1,7.87
1347.4,7.88
1348.7,7.89
1350.0,7.9
1351.3,7.91
1352.6,7.91
1353.9,7.92
1355.21,7.93
1356.51,7.94
1357.81,7.95
1359.11,7.96
1360.41,7.97
1361.71,7.98
1363.01,7.99
1364.31,8.0
1365.62,8.01
1366.92,8.02
1368.22,8.03
1369.52,8.04
1370.82,8.05
1372.12,8.05
1373.42,8.06
1374.72,8.07
1376.03,8.08
1377.33,8.09
1378.63,8.1
1379.93,8.11
1381.23,8.12
1382.53,8.13
1383.83,8.13
1385.14,8.14
1386.44,8.15
1387.74,8.16
1389.04,8.17
1390.34,8.18
1391.64,8.19
1392.94,8.19
1394.24,8.2
1395.55,8.21
1396.85,8.22
1398.15,8.23
1399.45,8.24
1400.75,8.24
1402.05,8.25
1403.35,8.26
1404.65,8.27
1405.96,8.28
1407.26,8.28
1408.56,8.29
1409.86,8.3
1411.16,8.31
1412.46,8.32
1413.76,8.32
1415.07,8.33
1416.37,8.34
1417.67,8.35
1418.97,8.36
1420.27,8.36
1421.57,8.37
1422.87,8.38
1424.17,8.39
1425.48,8.39
1426.78,8.4
1428.08,8.41
1429.38,8.41
1430.68,8.42
1431.98,8.43
1433.28,8.44
1434.58,8.44
1435.89,8.45
1437.19,8.46
1438.49,8.47
1439.79,8.47
1441.09,8.48
1442.39,8.49
1443.69,8.49
1444.99,8.5
1446.3,8.51
1447.6,8.51
1448.9,8.52
1450.2,8.53
1451.5,8.53
1452.8,8.54
1454.1,8.55
1455.41,8.55
1456.71,8.56
1458.01,8.57
1459.31,8.57
1460.61,8.58
1461.91,8.59
1463.21,8.59
1464.51,8.6
1465.82,8.6
1467.12,8.61
1468.42,8.62
1469.72,8.62
1471.02,8.63
1472.32,8.63
1473.62,8.64
1474.92,8.65
1476.23,8.65
1477.53,8.66
1478.83,8.66
1480.13,8.67
1481.43,8.67
1482.73,8.68
1484.03,8.69
1485.34,8.69
1486.64,8.7
1487.94,8.7
1489.24,8.71
1490.54,8.71
1491.84,8.72
1493.14,8.72
1494.44,8.73
1495.75,8.73
1497.05,8.74
1498.35,8.75
1499.65,8.75
1500.95,8.76
1502.25,8.76
1503.55,8.77
1504.85,8.77
1506.16,8.78
1507.46,8.78
1508.76,8.79
1510.06,8.79
1511.36,8.8
1512.66,8.8
1513.96,8.8
1515.27,8.81
1516.57,8.81
1517.87,8.82
1519.17,8.82
1520.47,8.83
1521.77,8.83
1523.07,8.84
1524.37,8.84
1525.68,8.85
1526.98,8.85
1528.28,8.85
1529.58,8.86
1530.88,8.86
1532.18,8.87
1533.48,8.87
1534.78,8.88
1536.09,8.88
1537.39,8.88
1538.69,8.89
1539.99,8.89
1541.29,8.9
1542.59,8.9
1543.89,8.91
1545.2,8.91
1546.5,8.91
1547.8,8.92
1549.1,8.92
1550.4,8.93
1551.7,8.93
1553.0,8.93
1554.3,8.94
1555.61,8.94
1556.91,8.94
1558.21,8.95
1559.51,8.95
1560.81,8.96
1562.11,8.96
1563.41,8.96
1564.71,8.97
1566.02,8.97
1567.32,8.97
1568.62,8.98
1569.92,8.98
1571.22,8.99
1572.52,8.99
1573.82,8.99
1575.13,9.0
1576.43,9.0
1577.73,9.0
1579.03,9.01
1580.33,9.01
1581.63,9.01
1582.93,9.02
1584.23,9.02
1585.54,9.02
1586.84,9.03
1588.14,9.03
1589.44,9.04
1590.74,9.04
1592.04,9.04
1593.34,9.05
1594.64,9.05
1595.95,9.05
1597.25,9.06
1598.55,9.06
1599.85,9.06
1601.15,9.07
1602.45,9.07
1603.75,9.07
1605.06,9.08
1606.36,9.08
1607.66,9.08
1608.96,9.09
1610.26,9.09
1611.56,9.1
1612.86,9.1
1614.16,9.1
1615.47,9.11
1616.77,9.11
1618.07,9.11
1619.37,9.12
1620.67,9.12
1621.97,9.12
1623.27,9.13
1624.57,9.13
1625.88,9.14
1627.18,9.14
1628.48,9.14
1629.78,9.15
1631.08,9.15
1632.38,9.16
1633.68,9.16
1634.98,9.16
1636.29,9.17
1637.59,9.17
1638.89,9.18
1640.19,9.18
1641.49,9.18
1642.79,9.19
1644.09,9.19
1645.4,9.2
1646.7,9.2
1648.0,9.21
1649.3,9.21
1650.6,9.21
1651.9,9.22
1653.2,9.22
1654.5,9.23
1655.81,9.23
1657.11,9.24
1658.41,9.24
1659.71,9.25
1661.01,9.25
1662.31,9.26
1663.61,9.26
1664.91,9.27
1666.22,9.27
1667.52,9.28
1668.82,9.28
1670.12,9.29
1671.42,9.29
1672.72,9.3
1674.02,9.31
1675.33,9.31
1676.63,9.32
1677.93,9.32
1679.23,9.33
1680.53,9.33
1681.83,9.34
1683.13,9.35
1684.43,9.35
1685.74,9.36
1687.04,9.37
1688.34,9.37
1689.64,9.38
1690.94,9.39
1692.24,9.39
1693.54,9.4
1694.84,9.41
1696.15,9.42
1697.45,9.42
1698.75,9.43
1700.05,9.44
1701.35,9.45
1702.65,9.45
1703.95,9.46
1705.26,9.47
1706.56,9.48
1707.86,9.49
1709.16,9.5
1710.46,9.5
1711.76,9.51
1713.06,9.52
1714.36,9.53
1715.67,9.54
1716.97,9.55
1718.27,9.56
1719.57,9.57
1720.87,9.58
1722.17,9.59
1723.47,9.6
1724.77,9.61
1726.08,9.62
1727.38,9.63
1728.68,9.64
1729.98,9.65
1731.28,9.66
1732.58,9.68
1733.88,9.69
1735.19,9.7
1736.49,9.71
1737.79,9.72
1739.09,9.74
1740.39,9.75
1741.69,9.76
1742.99,9.78
1744.29,9.79
1745.6,9.8
1746.9,9.82
1748.2,9.83
1749.5,9.85
1750.8,9.86
1752.1,9.88
1753.4,9.89
1754.7,9.91
1756.01,9.92
1757.31,9.94
1758.61,9.96
1759.91,9.97
1761.21,9.99
1762.51,10.01
1763.81,10.02
1765.12,10.04
1766.42,10.06
1767.72,10.08
1769.02,10.1
1770.32,10.12
1771.62,10.14
1772.92,10.16
1774.22,10.18
1775.53,10.2
1776.83,10.22
1778.13,10.24
1779.43,10.26
1780.73,10.28
1782.03,10.31
1783.33,10.33
1784.63,10.35
1785.94,10.38
1787.24,10.4
1788.54,10.43
1789.84,10.45
1791.14,10.48
1792.44,10.5
1793.74,10.53
1795.05,10.56
1796.35,10.58
1797.65,10.61
1798.95,10.64
1800.25,10.67
1801.55,10.7
1802.85,10.73
1804.15,10.76
1805.46,10.79
1806.76,10.82
1808.06,10.86
1809.36,10.89
1810.66,10.92
1811.96,10.96
1813.26,10.99
1814.56,11.03
1815.87,11.07
1817.17,11.1
1818.47,11.14
1819.77,11.18
1821.07,11.22
